Data from Bird_1_Reflection_3.txt Node
Date: Fri Jan 31 09:37:05 MST 2020
User: Lab User
Spectrometer: USB4J01344
Trigger mode: 0
Integration Time (sec): 1.047400E-1
Scans to average: 20
Electric dark correction enabled: false
Nonlinearity correction enabled: false
Boxcar width: 5
XAxis mode: Wavelengths
Number of Pixels in Spectrum: 3648
>>>>>Begin Spectral Data<<<<<
177.498	-63.25
177.717	-69.07
177.936	-148.44
178.155	-143.27
178.374	-168.39
178.593	-217.49
178.812	-481.91
179.031	-839.57
179.251	-1027.34
179.47	-1588.89
179.689	-1768.59
179.908	8820
180.127	436.49
180.346	286.87
180.565	211.66
180.784	177.89
181.003	149.33
181.222	130.23
181.441	109.47
181.66	94.43
181.879	90.51
182.098	86.02
182.316	86.34
182.535	87.09
182.754	85.09
182.973	81.22
183.192	84.87
183.411	83.42
183.63	88.15
183.849	96.86
184.067	99.33
184.286	99.49
184.505	104.37
184.724	104.99
184.943	102.98
185.161	108.59
185.38	107.9
185.599	103.35
185.818	105.13
186.036	107.75
186.255	99.81
186.474	101.65
186.693	101.6
186.911	99.17
187.13	100.14
187.349	101.71
187.567	95.44
187.786	95.65
188.004	97.75
188.223	98.79
188.442	101.32
188.66	103.85
188.879	100.52
189.097	98.94
189.316	99.56
189.535	95.38
189.753	97.53
189.972	100.65
190.19	102.62
190.409	104.69
190.627	107.36
190.846	102.97
191.064	103.01
191.283	102.25
191.501	105.45
191.719	108.39
191.938	110.38
192.156	107.31
192.375	106.54
192.593	102.43
192.811	103.77
193.03	101.89
193.248	101.86
193.467	97.94
193.685	98.43
193.903	96.05
194.121	95.72
194.34	95.68
194.558	96.45
194.776	99.17
194.995	101.72
195.213	97.42
195.431	92.03
195.649	90.12
195.868	93.42
196.086	95.59
196.304	95.7
196.522	92.56
196.74	90.86
196.958	89.43
197.177	86.61
197.395	89.98
197.613	90.93
197.831	93.58
198.049	91.29
198.267	91.98
198.485	90.41
198.703	88.87
198.921	91.32
199.139	94.22
199.358	94.61
199.576	93.57
199.794	89.22
200.012	87.65
200.23	87.35
200.448	90.66
200.666	88.05
200.883	88.91
201.101	90.35
201.319	89.2
201.537	93.17
201.755	96.5
201.973	96.56
202.191	98.89
202.409	102.33
202.627	104.02
202.845	104.58
203.062	111.27
203.28	109.73
203.498	106.56
203.716	106.26
203.934	98.76
204.151	94.31
204.369	94.16
204.587	94.73
204.805	95.54
205.022	93.42
205.24	89.92
205.458	87.34
205.676	87.67
205.893	91.05
206.111	86.61
206.329	86.63
206.546	84.23
206.764	82.87
206.982	81.06
207.199	81.17
207.417	80.4
207.634	82.6
207.852	76.01
208.07	73.65
208.287	76.32
208.505	76.92
208.722	77
208.94	82.73
209.157	84.09
209.375	79.5
209.592	77.78
209.81	79.94
210.027	78.18
210.245	81.71
210.462	85.47
210.68	79.89
210.897	81.24
211.115	83.61
211.332	78.82
211.549	76.27
211.767	82.8
211.984	82.05
212.201	78.44
212.419	80.39
212.636	78.56
212.854	75.51
213.071	77.8
213.288	76.99
213.505	78.44
213.723	80.3
213.94	84.62
214.157	81.94
214.374	79.24
214.592	82.11
214.809	83.9
215.026	85.7
215.243	85.42
215.461	86.74
215.678	88.86
215.895	88.89
216.112	89.32
216.329	86.93
216.546	88.76
216.763	92.19
216.981	93.39
217.198	90.07
217.415	91.48
217.632	93.81
217.849	91.4
218.066	92.98
218.283	87.45
218.5	85.94
218.717	87.21
218.934	88.56
219.151	86.73
219.368	84.52
219.585	82.94
219.802	83.94
220.019	84.87
220.236	81.82
220.453	79.05
220.67	80.06
220.887	80.75
221.103	77.35
221.32	72.69
221.537	74.1
221.754	75.7
221.971	77.08
222.188	74.69
222.405	72.55
222.621	73.9
222.838	77.5
223.055	76.78
223.272	74.63
223.488	72.89
223.705	72.78
223.922	73.12
224.139	73.34
224.355	73.79
224.572	70.38
224.789	69.96
225.005	66.87
225.222	62.76
225.439	62.4
225.655	65.37
225.872	66.64
226.089	67.2
226.305	65.02
226.522	63.49
226.738	58.99
226.955	56.82
227.172	52.59
227.388	50
227.605	45.52
227.821	42.54
228.038	38.05
228.254	36.16
228.471	35.27
228.687	34.99
228.904	33.86
229.12	34.52
229.337	34.13
229.553	34.44
229.77	35.53
229.986	36.87
230.202	36.49
230.419	38.14
230.635	39.07
230.851	38.08
231.068	37.24
231.284	37.83
231.501	37.84
231.717	37.65
231.933	39.01
232.149	38.27
232.366	38.41
232.582	39.04
232.798	38.1
233.015	37.05
233.231	36.36
233.447	36.77
233.663	35.31
233.879	34.17
234.096	34.42
234.312	33.59
234.528	32.38
234.744	31.47
234.96	31.41
235.176	30.79
235.393	31
235.609	31.29
235.825	30.41
236.041	30.52
236.257	30.66
236.473	30.84
236.689	30.55
236.905	30.61
237.121	30.18
237.337	29.83
237.553	30.1
237.769	29.83
237.985	29.89
238.201	29.94
238.417	29.15
238.633	28.11
238.849	27.52
239.065	26.34
239.281	25.94
239.497	24.99
239.713	24.6
239.928	23.82
240.144	22.92
240.36	22.17
240.576	21.31
240.792	20.82
241.008	20.49
241.223	19.76
241.439	19.51
241.655	19.26
241.871	19.23
242.087	18.99
242.302	18.92
242.518	18.91
242.734	18.68
242.95	18.73
243.165	18.87
243.381	18.96
243.597	19.25
243.812	19.6
244.028	19.74
244.244	19.85
244.459	19.98
244.675	20.04
244.89	20.21
245.106	20.34
245.322	20.12
245.537	19.53
245.753	19.21
245.968	18.78
246.184	18.48
246.399	18.25
246.615	18.17
246.83	18.16
247.046	18.09
247.261	17.98
247.477	17.91
247.692	17.87
247.908	17.98
248.123	18.03
248.339	18.15
248.554	18.26
248.769	18.63
248.985	18.84
249.2	18.97
249.416	19.23
249.631	19.46
249.846	19.61
250.062	19.88
250.277	19.87
250.492	19.95
250.707	20.12
250.923	19.91
251.138	19.57
251.353	19.43
251.569	19.2
251.784	19.09
251.999	19.13
252.214	19.26
252.429	19.36
252.645	19.56
252.86	19.6
253.075	19.53
253.29	19.83
253.505	20.01
253.72	20.35
253.935	20.82
254.151	21.1
254.366	21.23
254.581	21.29
254.796	21.11
255.011	20.99
255.226	20.94
255.441	21.15
255.656	20.82
255.871	21.01
256.086	20.73
256.301	20.54
256.516	20.21
256.731	20.05
256.946	19.98
257.161	19.94
257.376	19.65
257.591	19.69
257.806	19.3
258.02	19.2
258.235	18.63
258.45	18.2
258.665	17.88
258.88	17.66
259.095	17.39
259.31	17.18
259.524	17.03
259.739	17.06
259.954	16.94
260.169	16.95
260.383	16.95
260.598	16.97
260.813	17.02
261.028	17.07
261.242	17.14
261.457	17.31
261.672	17.55
261.886	17.79
262.101	17.91
262.316	18.03
262.53	18.09
262.745	18.07
262.96	18.27
263.174	18.4
263.389	18.47
263.603	18.5
263.818	18.52
264.033	18.45
264.247	18.45
264.462	18.27
264.676	18.39
264.891	18.5
265.105	18.37
265.32	18.08
265.534	17.9
265.749	17.8
265.963	17.72
266.178	17.63
266.392	17.59
266.606	17.58
266.821	17.6
267.035	17.51
267.25	17.35
267.464	17.28
267.678	17.35
267.893	17.4
268.107	17.38
268.321	17.46
268.536	17.42
268.75	17.36
268.964	17.32
269.179	17.26
269.393	16.84
269.607	16.89
269.821	16.97
270.036	16.79
270.25	16.75
270.464	16.69
270.678	16.56
270.892	16.54
271.106	16.54
271.321	16.46
271.535	16.47
271.749	16.63
271.963	16.52
272.177	16.4
272.391	16.47
272.605	16.44
272.819	16.47
273.033	16.5
273.248	16.55
273.462	16.53
273.676	16.59
273.89	16.55
274.104	16.67
274.318	16.72
274.532	16.83
274.746	16.82
274.96	16.78
275.173	16.8
275.387	16.74
275.601	16.72
275.815	16.82
276.029	16.81
276.243	16.85
276.457	16.82
276.671	16.82
276.885	16.76
277.098	16.77
277.312	16.83
277.526	16.72
277.74	16.78
277.954	16.71
278.167	16.6
278.381	16.67
278.595	16.75
278.809	16.82
279.022	16.76
279.236	16.77
279.45	16.76
279.663	16.72
279.877	16.74
280.091	16.7
280.304	16.79
280.518	16.82
280.732	16.68
280.945	16.59
281.159	16.5
281.373	16.46
281.586	16.45
281.8	16.42
282.013	16.49
282.227	16.54
282.44	16.52
282.654	16.48
282.867	16.44
283.081	16.5
283.294	16.47
283.508	16.47
283.721	16.45
283.935	16.44
284.148	16.41
284.362	16.3
284.575	16.24
284.789	16.23
285.002	16.21
285.215	16.23
285.429	16.19
285.642	16.2
285.855	16.21
286.069	16.24
286.282	16.32
286.495	16.4
286.709	16.47
286.922	16.53
287.135	16.65
287.348	16.71
287.562	16.81
287.775	16.93
287.988	17.03
288.201	17.16
288.415	17.31
288.628	17.38
288.841	17.45
289.054	17.52
289.267	17.55
289.48	17.6
289.694	17.68
289.907	17.72
290.12	17.78
290.333	17.89
290.546	17.99
290.759	18.08
290.972	18.17
291.185	18.22
291.398	18.35
291.611	18.54
291.824	18.66
292.037	18.81
292.25	18.97
292.463	19.12
292.676	19.27
292.889	19.32
293.102	19.46
293.315	19.53
293.528	19.68
293.741	19.72
293.954	19.76
294.166	19.83
294.379	19.9
294.592	19.98
294.805	20.03
295.018	20.08
295.231	20.15
295.443	20.19
295.656	20.33
295.869	20.41
296.082	20.46
296.295	20.54
296.507	20.53
296.72	20.57
296.933	20.55
297.145	20.56
297.358	20.55
297.571	20.64
297.783	20.7
297.996	20.68
298.209	20.7
298.421	20.78
298.634	20.81
298.847	20.93
299.059	21.03
299.272	21.22
299.484	21.37
299.697	21.55
299.91	21.59
300.122	21.65
300.335	21.8
300.547	21.85
300.76	21.9
300.972	21.98
301.185	22
301.397	22
301.609	22.03
301.822	22.07
302.034	22.14
302.247	22.19
302.459	22.31
302.672	22.31
302.884	22.41
303.096	22.5
303.309	22.53
303.521	22.56
303.733	22.62
303.946	22.63
304.158	22.7
304.37	22.75
304.583	22.86
304.795	22.88
305.007	22.94
305.219	23.05
305.432	23.09
305.644	23.25
305.856	23.44
306.068	23.55
306.28	23.71
306.493	23.82
306.705	23.81
306.917	23.84
307.129	23.96
307.341	23.97
307.553	23.99
307.765	23.95
307.977	23.99
308.189	23.94
308.402	23.99
308.614	23.98
308.826	23.97
309.038	24.06
309.25	24.1
309.462	24.04
309.674	24.13
309.886	24.12
310.098	24.17
310.31	24.13
310.522	24.25
310.733	24.3
310.945	24.33
311.157	24.39
311.369	24.38
311.581	24.43
311.793	24.47
312.005	24.52
312.217	24.59
312.428	24.69
312.64	24.78
312.852	24.86
313.064	24.87
313.276	24.98
313.487	25.05
313.699	25.2
313.911	25.13
314.123	25.24
314.334	25.28
314.546	25.37
314.758	25.43
314.97	25.4
315.181	25.36
315.393	25.45
315.604	25.45
315.816	25.47
316.028	25.57
316.239	25.71
316.451	25.79
316.663	25.76
316.874	25.74
317.086	25.82
317.297	25.92
317.509	25.85
317.72	25.93
317.932	26
318.143	26.06
318.355	26.11
318.566	26.19
318.778	26.16
318.989	26.23
319.201	26.41
319.412	26.44
319.624	26.6
319.835	26.79
320.046	26.84
320.258	26.81
320.469	26.93
320.68	26.96
320.892	26.99
321.103	27.18
321.314	27.25
321.526	27.27
321.737	27.25
321.948	27.23
322.16	27.24
322.371	27.15
322.582	27.18
322.793	27.15
323.005	27.12
323.216	27.05
323.427	26.95
323.638	26.93
323.849	26.89
324.06	26.84
324.272	26.85
324.483	26.81
324.694	26.84
324.905	26.84
325.116	26.84
325.327	26.89
325.538	26.98
325.749	27.03
325.96	27.09
326.171	27.17
326.382	27.22
326.593	27.23
326.804	27.28
327.015	27.4
327.226	27.54
327.437	27.57
327.648	27.6
327.859	27.69
328.07	27.77
328.281	27.8
328.492	27.79
328.703	27.98
328.914	28.03
329.125	28.06
329.335	28.05
329.546	27.98
329.757	27.98
329.968	28.01
330.179	27.97
330.39	27.97
330.6	27.96
330.811	27.91
331.022	27.88
331.233	27.95
331.443	28.04
331.654	28.08
331.865	28.16
332.075	28.2
332.286	28.15
332.497	28.21
332.707	28.18
332.918	28.34
333.129	28.38
333.339	28.39
333.55	28.39
333.761	28.42
333.971	28.52
334.182	28.52
334.392	28.54
334.603	28.53
334.813	28.46
335.024	28.6
335.234	28.53
335.445	28.54
335.655	28.52
335.866	28.51
336.076	28.52
336.287	28.44
336.497	28.43
336.708	28.45
336.918	28.52
337.128	28.6
337.339	28.55
337.549	28.62
337.759	28.66
337.97	28.7
338.18	28.8
338.39	28.75
338.601	28.81
338.811	28.81
339.021	28.82
339.232	28.86
339.442	28.92
339.652	28.93
339.862	28.94
340.073	29.06
340.283	29.09
340.493	29.05
340.703	29.11
340.913	29.11
341.124	29.12
341.334	29.15
341.544	29.25
341.754	29.25
341.964	29.25
342.174	29.31
342.384	29.31
342.594	29.33
342.804	29.33
343.014	29.45
343.224	29.5
343.435	29.55
343.645	29.5
343.855	29.45
344.065	29.43
344.274	29.46
344.484	29.44
344.694	29.43
344.904	29.44
345.114	29.44
345.324	29.34
345.534	29.29
345.744	29.3
345.954	29.34
346.164	29.28
346.374	29.25
346.583	29.25
346.793	29.26
347.003	29.21
347.213	29.24
347.423	29.31
347.632	29.42
347.842	29.48
348.052	29.54
348.262	29.63
348.471	29.64
348.681	29.69
348.891	29.68
349.1	29.71
349.31	29.77
349.52	29.76
349.729	29.78
349.939	29.77
350.149	29.74
350.358	29.71
350.568	29.69
350.778	29.77
350.987	29.81
351.197	29.92
351.406	29.4
351.616	29.44
351.825	29.53
352.035	29.52
352.244	29.51
352.454	29.56
352.663	29.64
352.873	29.68
353.082	29.7
353.292	29.73
353.501	29.72
353.711	30.23
353.92	30.2
354.129	30.1
354.339	30.07
354.548	30.06
354.757	30.09
354.967	30.06
355.176	29.99
355.385	29.99
355.595	29.97
355.804	29.96
356.013	29.97
356.223	30.02
356.432	30.07
356.641	30.18
356.85	30.16
357.059	30.11
357.269	30.1
357.478	30.22
357.687	30.25
357.896	30.31
358.105	30.35
358.314	30.41
358.524	30.44
358.733	30.46
358.942	30.42
359.151	30.42
359.36	30.54
359.569	30.52
359.778	30.5
359.987	30.51
360.196	30.5
360.405	30.5
360.614	30.42
360.823	30.35
361.032	30.36
361.241	30.36
361.45	30.41
361.659	30.34
361.868	30.38
362.077	30.39
362.286	30.44
362.495	30.43
362.704	30.47
362.912	30.52
363.121	30.58
363.33	30.57
363.539	30.58
363.748	30.61
363.957	30.67
364.165	30.74
364.374	30.77
364.583	30.75
364.792	30.78
365	30.68
365.209	30.68
365.418	30.72
365.626	30.78
365.835	30.82
366.044	30.8
366.253	30.86
366.461	30.85
366.67	30.85
366.878	30.91
367.087	30.91
367.296	31
367.504	31
367.713	31.02
367.921	31.05
368.13	31.07
368.338	31.09
368.547	31.06
368.755	31.06
368.964	31.14
369.172	31.15
369.381	31.24
369.589	31.29
369.798	31.32
370.006	31.37
370.215	31.33
370.423	31.33
370.632	31.39
370.84	31.41
371.048	31.46
371.257	31.42
371.465	31.39
371.673	31.42
371.882	31.47
372.09	31.53
372.298	31.59
372.507	31.62
372.715	31.68
372.923	31.75
373.131	31.74
373.34	31.75
373.548	31.81
373.756	31.88
373.964	31.81
374.172	31.79
374.381	31.84
374.589	31.82
374.797	31.86
375.005	31.85
375.213	31.83
375.421	31.84
375.629	31.82
375.837	31.8
376.045	31.77
376.254	31.82
376.462	31.84
376.67	31.78
376.878	31.7
377.086	31.7
377.294	31.75
377.502	31.75
377.71	31.81
377.918	31.88
378.126	31.83
378.333	31.87
378.541	31.89
378.749	31.88
378.957	31.89
379.165	31.92
379.373	31.92
379.581	31.9
379.789	31.93
379.996	31.93
380.204	31.95
380.412	32.03
380.62	32.03
380.828	32.03
381.035	32.04
381.243	32.11
381.451	32.12
381.659	32.15
381.866	32.18
382.074	32.19
382.282	32.17
382.489	32.09
382.697	32.11
382.905	32.12
383.112	32.13
383.32	32.16
383.528	32.11
383.735	32.12
383.943	32.12
384.15	32.14
384.358	32.12
384.565	32.18
384.773	32.21
384.981	32.23
385.188	32.23
385.396	32.24
385.603	32.24
385.811	32.29
386.018	32.29
386.225	32.26
386.433	32.25
386.64	32.34
386.848	32.33
387.055	32.41
387.263	32.39
387.47	32.43
387.677	32.43
387.885	32.42
388.092	32.42
388.299	32.51
388.507	32.55
388.714	32.57
388.921	32.57
389.128	32.61
389.336	32.63
389.543	32.71
389.75	32.7
389.957	32.71
390.165	32.75
390.372	32.76
390.579	32.75
390.786	32.76
390.993	32.75
391.2	32.72
391.408	32.71
391.615	32.65
391.822	32.64
392.029	32.62
392.236	32.61
392.443	32.65
392.65	32.64
392.857	32.64
393.064	32.69
393.271	32.72
393.478	32.72
393.685	32.75
393.892	32.78
394.099	32.75
394.306	32.81
394.513	32.83
394.72	32.79
394.927	32.79
395.134	32.79
395.341	32.83
395.547	32.86
395.754	32.91
395.961	32.93
396.168	32.98
396.375	33.03
396.582	33.08
396.788	33.15
396.995	33.24
397.202	33.28
397.409	33.31
397.616	33.27
397.822	33.26
398.029	33.26
398.236	33.27
398.442	33.21
398.649	33.21
398.856	33.23
399.062	33.22
399.269	33.19
399.476	33.23
399.682	33.21
399.889	33.25
400.096	33.3
400.302	33.3
400.509	33.31
400.715	33.38
400.922	33.42
401.128	33.36
401.335	33.36
401.541	33.4
401.748	33.41
401.954	33.47
402.161	33.46
402.367	33.46
402.574	33.48
402.78	33.49
402.986	33.51
403.193	33.5
403.399	33.56
403.606	33.6
403.812	33.6
404.018	33.65
404.225	33.67
404.431	33.69
404.637	33.71
404.844	33.73
405.05	33.77
405.256	33.78
405.462	33.79
405.669	33.8
405.875	33.82
406.081	33.82
406.287	33.83
406.494	33.85
406.7	33.83
406.906	33.85
407.112	33.87
407.318	33.88
407.524	33.9
407.73	33.94
407.937	33.98
408.143	33.98
408.349	34.04
408.555	34.05
408.761	34.04
408.967	34.14
409.173	34.14
409.379	34.17
409.585	34.15
409.791	34.14
409.997	34.16
410.203	34.13
410.409	34.1
410.615	34.1
410.821	34.09
411.027	34.14
411.233	34.15
411.438	34.2
411.644	34.19
411.85	34.24
412.056	34.24
412.262	34.28
412.468	34.35
412.673	34.4
412.879	34.43
413.085	34.46
413.291	34.47
413.497	34.48
413.702	34.48
413.908	34.51
414.114	34.54
414.319	34.58
414.525	34.56
414.731	34.6
414.937	34.66
415.142	34.7
415.348	34.76
415.553	34.78
415.759	34.78
415.965	34.77
416.17	34.81
416.376	34.82
416.581	34.87
416.787	34.87
416.992	34.85
417.198	34.83
417.404	34.8
417.609	34.81
417.815	34.78
418.02	34.77
418.225	34.78
418.431	34.78
418.636	34.79
418.842	34.78
419.047	34.78
419.253	34.82
419.458	34.82
419.663	34.83
419.869	34.81
420.074	34.85
420.279	34.88
420.485	34.89
420.69	34.89
420.895	34.89
421.101	34.91
421.306	34.95
421.511	34.92
421.716	34.95
421.922	34.99
422.127	35.02
422.332	35.03
422.537	35.03
422.742	35.05
422.947	35.06
423.153	35.07
423.358	35.07
423.563	35.1
423.768	35.13
423.973	35.14
424.178	35.14
424.383	35.15
424.588	35.16
424.793	35.19
424.998	35.23
425.203	35.26
425.408	35.29
425.613	35.31
425.818	35.32
426.023	35.35
426.228	35.38
426.433	35.44
426.638	35.49
426.843	35.55
427.048	35.6
427.253	35.62
427.458	35.68
427.663	35.7
427.867	35.76
428.072	35.79
428.277	35.82
428.482	35.83
428.687	35.83
428.892	35.86
429.096	35.86
429.301	35.83
429.506	35.84
429.711	35.88
429.915	35.9
430.12	35.92
430.325	35.92
430.529	35.94
430.734	35.96
430.939	35.97
431.143	35.96
431.348	35.95
431.553	35.98
431.757	35.97
431.962	35.93
432.166	35.94
432.371	35.93
432.575	35.96
432.78	35.97
432.984	35.95
433.189	35.97
433.394	35.99
433.598	36.01
433.802	36.03
434.007	36.07
434.211	36.08
434.416	36.1
434.62	36.15
434.825	36.17
435.029	36.18
435.233	36.24
435.438	36.26
435.642	36.27
435.846	36.32
436.051	36.36
436.255	36.41
436.459	36.42
436.664	36.42
436.868	36.42
437.072	36.43
437.276	36.44
437.481	36.44
437.685	36.44
437.889	36.43
438.093	36.41
438.298	36.42
438.502	36.41
438.706	36.43
438.91	36.49
439.114	36.48
439.318	36.48
439.522	36.47
439.726	36.48
439.931	36.51
440.135	36.55
440.339	36.57
440.543	36.57
440.747	36.59
440.951	36.59
441.155	36.58
441.359	36.6
441.563	36.62
441.767	36.67
441.971	36.7
442.175	36.72
442.378	36.74
442.582	36.76
442.786	36.79
442.99	36.83
443.194	36.86
443.398	36.9
443.602	36.92
443.806	36.96
444.009	36.97
444.213	37
444.417	37.01
444.621	37.02
444.825	37.03
445.028	37.02
445.232	37.03
445.436	37.01
445.639	37.02
445.843	37.01
446.047	37.02
446.251	37.03
446.454	37.02
446.658	36.99
446.861	37.01
447.065	37.01
447.269	37.04
447.472	37.07
447.676	37.11
447.879	37.13
448.083	37.17
448.287	37.18
448.49	37.18
448.694	37.2
448.897	37.24
449.101	37.25
449.304	37.28
449.507	37.29
449.711	37.3
449.914	37.31
450.118	37.36
450.321	37.39
450.525	37.42
450.728	37.48
450.931	37.53
451.135	37.56
451.338	37.58
451.541	37.61
451.745	37.64
451.948	37.61
452.151	37.64
452.355	37.65
452.558	37.64
452.761	37.68
452.964	37.71
453.168	37.72
453.371	37.76
453.574	37.8
453.777	37.82
453.98	37.82
454.183	37.9
454.387	37.92
454.59	37.95
454.793	37.98
454.996	38
455.199	38.03
455.402	38.03
455.605	38.02
455.808	38.03
456.011	38.06
456.214	38.11
456.417	38.12
