Data from Bird_1_Reflection_1.txt Node
Date: Fri Jan 31 09:36:23 MST 2020
User: Lab User
Spectrometer: USB4J01344
Trigger mode: 0
Integration Time (sec): 1.047400E-1
Scans to average: 20
Electric dark correction enabled: false
Nonlinearity correction enabled: false
Boxcar width: 5
XAxis mode: Wavelengths
Number of Pixels in Spectrum: 3648
>>>>>Begin Spectral Data<<<<<
177.498	-169.4
177.717	-151.65
177.936	-196.35
178.155	-174.97
178.374	-222.52
178.593	-246.14
178.812	-404.16
179.031	-633.45
179.251	-740.62
179.47	-1190.56
179.689	-1438.46
179.908	7906.67
180.127	407.66
180.346	301.71
180.565	213.98
180.784	173.7
181.003	147.83
181.222	148.38
181.441	134.78
181.66	116.16
181.879	106.8
182.098	98.71
182.316	94.85
182.535	95
182.754	96.89
182.973	98.22
183.192	100.28
183.411	104.26
183.63	107.53
183.849	106.02
184.067	107.76
184.286	104.84
184.505	104.42
184.724	107.18
184.943	105.12
185.161	102.54
185.38	101.68
185.599	101.49
185.818	101.49
186.036	98.24
186.255	98.24
186.474	96.58
186.693	97.14
186.911	99.61
187.13	99.34
187.349	104.35
187.567	103.92
187.786	101.85
188.004	100.11
188.223	100.4
188.442	103.85
188.66	103.31
188.879	102.96
189.097	102.91
189.316	102.43
189.535	100.87
189.753	106.73
189.972	108.97
190.19	115.1
190.409	112.52
190.627	114.33
190.846	109.59
191.064	111.27
191.283	109.54
191.501	109.4
191.719	109.76
191.938	109.05
192.156	99.42
192.375	93.11
192.593	86.84
192.811	91.53
193.03	94.48
193.248	97.26
193.467	95.84
193.685	96.31
193.903	91.7
194.121	92.58
194.34	92.51
194.558	93.36
194.776	95.67
194.995	99.45
195.213	94.61
195.431	85.82
195.649	82.16
195.868	79.62
196.086	83.71
196.304	85.9
196.522	82.24
196.74	78.29
196.958	76.43
197.177	74.73
197.395	72.53
197.613	76.75
197.831	80.34
198.049	80.71
198.267	83.02
198.485	79.61
198.703	81.85
198.921	85.93
199.139	90.08
199.358	89.43
199.576	91.21
199.794	92.7
200.012	92.2
200.23	94.24
200.448	94.15
200.666	92.09
200.883	94.08
201.101	93.39
201.319	90.12
201.537	91.06
201.755	92.77
201.973	96.83
202.191	91.16
202.409	89.91
202.627	85.67
202.845	85.71
203.062	89.23
203.28	86.32
203.498	83.27
203.716	84.74
203.934	83.31
204.151	82.15
204.369	75.85
204.587	77.99
204.805	75.66
205.022	82.48
205.24	84.07
205.458	78.91
205.676	80.97
205.893	85.88
206.111	82.87
206.329	82.69
206.546	83.95
206.764	83.94
206.982	84.29
207.199	88.27
207.417	81.47
207.634	81.04
207.852	82.01
208.07	82.6
208.287	82.86
208.505	84.75
208.722	81.46
208.94	82.13
209.157	83.77
209.375	84.52
209.592	81.36
209.81	81.32
210.027	80.36
210.245	82.69
210.462	82.35
210.68	81.78
210.897	83.01
211.115	86.13
211.332	83.43
211.549	81.52
211.767	85.21
211.984	86.41
212.201	85.58
212.419	88.1
212.636	88.6
212.854	87.72
213.071	86.12
213.288	80.97
213.505	82.69
213.723	84.44
213.94	88.29
214.157	86.66
214.374	84.06
214.592	86.03
214.809	88
215.026	84.83
215.243	85.36
215.461	86.3
215.678	85.48
215.895	82.65
216.112	84.27
216.329	81.13
216.546	80.24
216.763	85.94
216.981	82.76
217.198	78.63
217.415	78.46
217.632	77.01
217.849	77.16
218.066	82.71
218.283	83.98
218.5	77.68
218.717	75.96
218.934	76.77
219.151	72.86
219.368	75.87
219.585	73.07
219.802	76.87
220.019	80.22
220.236	77.5
220.453	74.57
220.67	75.61
220.887	79.59
221.103	78.88
221.32	73.16
221.537	75.54
221.754	76.43
221.971	76.51
222.188	72.65
222.405	70.54
222.621	70.66
222.838	72.3
223.055	68.9
223.272	69.58
223.488	69.17
223.705	70.48
223.922	70.85
224.139	69.34
224.355	73.05
224.572	72.91
224.789	71.81
225.005	68.82
225.222	68.03
225.439	68.85
225.655	69.57
225.872	67.56
226.089	66.03
226.305	63.85
226.522	62.49
226.738	57.17
226.955	54.66
227.172	50.15
227.388	49.01
227.605	46.36
227.821	44.48
228.038	39.66
228.254	40.44
228.471	40.47
228.687	38.27
228.904	37.13
229.12	37.7
229.337	38.16
229.553	39.12
229.77	39.34
229.986	39.43
230.202	39.02
230.419	41.09
230.635	41.03
230.851	41.31
231.068	42.61
231.284	42.83
231.501	43.2
231.717	41.9
231.933	42.01
232.149	41.97
232.366	41.91
232.582	41.22
232.798	39.86
233.015	38.53
233.231	37.4
233.447	38.34
233.663	37.65
233.879	37.06
234.096	36.77
234.312	36.09
234.528	35.24
234.744	34.93
234.96	35.34
235.176	35.55
235.393	35.15
235.609	34.78
235.825	33.26
236.041	32.84
236.257	31.92
236.473	31.85
236.689	32.38
236.905	32.39
237.121	31.67
237.337	30.91
237.553	30.01
237.769	29.8
237.985	30.46
238.201	30.72
238.417	30.65
238.633	30.16
238.849	29.83
239.065	28.48
239.281	27.81
239.497	27.38
239.713	26.83
239.928	26.73
240.144	26.28
240.36	25.58
240.576	24.61
240.792	24.44
241.008	24.3
241.223	23.61
241.439	23.29
241.655	23
241.871	22.78
242.087	22.83
242.302	22.6
242.518	22.63
242.734	22.63
242.95	22.78
243.165	22.76
243.381	22.84
243.597	23.08
243.812	23.46
244.028	23.77
244.244	24.07
244.459	23.9
244.675	24.18
244.89	24.21
245.106	23.81
245.322	23.3
245.537	22.8
245.753	22.38
245.968	22.13
246.184	21.81
246.399	21.61
246.615	21.42
246.83	21.42
247.046	21.4
247.261	21.37
247.477	21.34
247.692	21.48
247.908	21.54
248.123	21.55
248.339	21.66
248.554	21.86
248.769	22.15
248.985	22.51
249.2	22.68
249.416	22.87
249.631	22.91
249.846	22.93
250.062	22.85
250.277	23.02
250.492	23.36
250.707	23.25
250.923	22.84
251.138	22.67
251.353	22.45
251.569	22.34
251.784	22.24
251.999	22.36
252.214	22.52
252.429	22.49
252.645	22.51
252.86	22.49
253.075	22.48
253.29	22.68
253.505	22.69
253.72	22.83
253.935	23.13
254.151	23.34
254.366	23.41
254.581	23.58
254.796	23.6
255.011	23.49
255.226	23.3
255.441	23.53
255.656	23.56
255.871	23.54
256.086	23.33
256.301	23.06
256.516	22.66
256.731	22.41
256.946	22.25
257.161	22.27
257.376	22.18
257.591	22.1
257.806	21.93
258.02	21.67
258.235	21.46
258.45	21.32
258.665	21.1
258.88	20.88
259.095	20.66
259.31	20.45
259.524	20.41
259.739	20.37
259.954	20.32
260.169	20.31
260.383	20.29
260.598	20.27
260.813	20.24
261.028	20.32
261.242	20.44
261.457	20.58
261.672	20.84
261.886	20.86
262.101	21
262.316	20.91
262.53	20.87
262.745	20.87
262.96	20.98
263.174	21.1
263.389	21.05
263.603	21.1
263.818	21.04
264.033	20.9
264.247	20.94
264.462	21.07
264.676	21.31
264.891	21.36
265.105	21.42
265.32	21.24
265.534	21.05
265.749	21.02
265.963	20.84
266.178	20.96
266.392	20.85
266.606	20.86
266.821	20.67
267.035	20.66
267.25	20.56
267.464	20.52
267.678	20.6
267.893	20.62
268.107	20.52
268.321	20.59
268.536	20.48
268.75	20.5
268.964	20.45
269.179	20.49
269.393	18.91
269.607	18.93
269.821	18.92
270.036	18.77
270.25	18.65
270.464	18.59
270.678	18.51
270.892	18.42
271.106	18.43
271.321	18.38
271.535	18.31
271.749	19.35
271.963	19.3
272.177	19.18
272.391	19.19
272.605	19.12
272.819	19.22
273.033	19.25
273.248	19.31
273.462	19.35
273.676	19.4
273.89	19.41
274.104	19.49
274.318	19.45
274.532	19.59
274.746	19.6
274.96	19.76
275.173	19.69
275.387	19.63
275.601	19.64
275.815	19.7
276.029	19.62
276.243	19.66
276.457	19.67
276.671	19.74
276.885	19.61
277.098	19.56
277.312	19.53
277.526	19.48
277.74	19.49
277.954	19.44
278.167	19.43
278.381	19.5
278.595	19.5
278.809	19.53
279.022	19.45
279.236	19.47
279.45	19.46
279.663	19.42
279.877	19.46
280.091	19.5
280.304	19.58
280.518	19.49
280.732	19.38
280.945	19.32
281.159	19.15
281.373	19.2
281.586	19.27
281.8	19.27
282.013	19.31
282.227	19.31
282.44	19.24
282.654	19.13
282.867	19.09
283.081	19.17
283.294	19.15
283.508	19.23
283.721	19.15
283.935	19.09
284.148	19.12
284.362	19.05
284.575	18.99
284.789	18.95
285.002	18.94
285.215	19
285.429	18.97
285.642	19
285.855	19.04
286.069	19.07
286.282	19.18
286.495	19.16
286.709	19.26
286.922	19.39
287.135	19.51
287.348	19.64
287.562	19.76
287.775	19.85
287.988	19.94
288.201	20.02
288.415	20.17
288.628	20.18
288.841	20.23
289.054	20.23
289.267	20.21
289.48	20.29
289.694	20.31
289.907	20.27
290.12	20.28
290.333	20.34
290.546	20.41
290.759	20.42
290.972	20.48
291.185	20.58
291.398	20.68
291.611	20.81
291.824	20.89
292.037	21
292.25	21.16
292.463	21.34
292.676	21.42
292.889	21.46
293.102	21.57
293.315	21.68
293.528	21.8
293.741	21.82
293.954	21.87
294.166	21.9
294.379	21.91
294.592	22.01
294.805	22.02
295.018	22.12
295.231	22.14
295.443	22.13
295.656	22.19
295.869	22.24
296.082	22.28
296.295	22.31
296.507	22.28
296.72	22.34
296.933	22.27
297.145	22.31
297.358	22.27
297.571	22.38
297.783	22.41
297.996	22.41
298.209	22.39
298.421	22.41
298.634	22.44
298.847	22.58
299.059	22.65
299.272	22.69
299.484	22.72
299.697	22.89
299.91	22.91
300.122	22.98
300.335	23.09
300.547	23.16
300.76	23.29
300.972	23.3
301.185	23.28
301.397	23.29
301.609	23.41
301.822	23.41
302.034	23.44
302.247	23.44
302.459	23.52
302.672	23.46
302.884	23.57
303.096	23.56
303.309	23.6
303.521	23.72
303.733	23.76
303.946	23.76
304.158	23.85
304.37	23.88
304.583	23.87
304.795	23.9
305.007	23.96
305.219	24.01
305.432	24.05
305.644	24.13
305.856	24.21
306.068	24.26
306.28	24.32
306.493	24.37
306.705	24.37
306.917	24.48
307.129	24.55
307.341	24.6
307.553	24.64
307.765	24.68
307.977	24.76
308.189	24.65
308.402	24.67
308.614	24.68
308.826	24.65
309.038	24.72
309.25	24.78
309.462	24.74
309.674	24.74
309.886	24.71
310.098	24.71
310.31	24.69
310.522	24.77
310.733	24.81
310.945	24.87
311.157	24.93
311.369	24.93
311.581	24.94
311.793	25.02
312.005	25.05
312.217	25.13
312.428	25.17
312.64	25.2
312.852	25.31
313.064	25.38
313.276	25.44
313.487	25.49
313.699	25.57
313.911	25.58
314.123	25.6
314.334	25.74
314.546	25.76
314.758	25.84
314.97	25.86
315.181	25.82
315.393	25.89
315.604	25.9
315.816	26.05
316.028	26.08
316.239	26.12
316.451	26.14
316.663	26.09
316.874	26.16
317.086	26.19
317.297	26.15
317.509	26.1
317.72	26.13
317.932	26.17
318.143	26.12
318.355	26.17
318.566	26.27
318.778	26.36
318.989	26.36
319.201	26.34
319.412	26.33
319.624	26.48
319.835	26.53
320.046	26.61
320.258	26.51
320.469	26.57
320.68	26.62
320.892	26.56
321.103	26.62
321.314	26.68
321.526	26.68
321.737	26.77
321.948	26.75
322.16	26.79
322.371	26.73
322.582	26.76
322.793	26.68
323.005	26.66
323.216	26.67
323.427	26.6
323.638	26.58
323.849	26.58
324.06	26.51
324.272	26.51
324.483	26.5
324.694	26.52
324.905	26.64
325.116	26.65
325.327	26.67
325.538	26.67
325.749	26.66
325.96	26.73
326.171	26.81
326.382	26.89
326.593	26.93
326.804	26.94
327.015	26.94
327.226	26.94
327.437	26.95
327.648	26.94
327.859	27
328.07	27.15
328.281	27.17
328.492	27.16
328.703	27.21
328.914	27.18
329.125	27.25
329.335	27.22
329.546	27.19
329.757	27.25
329.968	27.29
330.179	27.28
330.39	27.29
330.6	27.28
330.811	27.22
331.022	27.17
331.233	27.24
331.443	27.25
331.654	27.3
331.865	27.34
332.075	27.41
332.286	27.42
332.497	27.44
332.707	27.38
332.918	27.4
333.129	27.46
333.339	27.46
333.55	27.47
333.761	27.47
333.971	27.54
334.182	27.49
334.392	27.47
334.603	27.43
334.813	27.42
335.024	27.45
335.234	27.48
335.445	27.46
335.655	27.45
335.866	27.47
336.076	27.44
336.287	27.4
336.497	27.46
336.708	27.5
336.918	27.56
337.128	27.65
337.339	27.69
337.549	27.68
337.759	27.78
337.97	27.86
338.18	27.84
338.39	27.89
338.601	27.98
338.811	28
339.021	27.92
339.232	27.93
339.442	27.89
339.652	27.92
339.862	27.97
340.073	28.03
340.283	28.1
340.493	28.18
340.703	28.19
340.913	28.15
341.124	28.11
341.334	28.24
341.544	28.24
341.754	28.22
341.964	28.22
342.174	28.21
342.384	28.21
342.594	28.17
342.804	28.2
343.014	28.23
343.224	28.22
343.435	28.21
343.645	28.15
343.855	28.16
344.065	28.22
344.274	28.2
344.484	28.19
344.694	28.13
344.904	28.12
345.114	28.06
345.324	28.06
345.534	28.04
345.744	28.15
345.954	28.16
346.164	28.15
346.374	28.09
346.583	28.06
346.793	28.13
347.003	28.16
347.213	28.14
347.423	28.17
347.632	28.16
347.842	28.22
348.052	28.19
348.262	28.25
348.471	28.23
348.681	28.3
348.891	28.31
349.1	28.34
349.31	28.44
349.52	28.49
349.729	28.54
349.939	28.6
350.149	28.62
350.358	28.6
350.568	28.58
350.778	28.65
350.987	28.64
351.197	28.73
351.406	28.81
351.616	28.82
351.825	28.86
352.035	28.81
352.244	28.76
352.454	28.8
352.663	28.87
352.873	28.9
353.082	28.93
353.292	28.99
353.501	28.96
353.711	28.85
353.92	28.78
354.129	28.76
354.339	28.77
354.548	28.77
354.757	28.8
354.967	28.8
355.176	28.82
355.385	28.81
355.595	28.75
355.804	28.76
356.013	28.75
356.223	28.78
356.432	28.75
356.641	28.79
356.85	28.82
357.059	28.8
357.269	28.76
357.478	28.78
357.687	28.76
357.896	28.85
358.105	28.83
358.314	28.9
358.524	28.92
358.733	28.99
358.942	28.96
359.151	28.95
359.36	28.97
359.569	29.03
359.778	29.06
359.987	29.1
360.196	29.04
360.405	29.11
360.614	29.05
360.823	29.04
361.032	29.07
361.241	29.11
361.45	29.15
361.659	29.15
361.868	29.11
362.077	29.05
362.286	29.08
362.495	29.14
362.704	29.13
362.912	29.16
363.121	29.16
363.33	29.14
363.539	29.11
363.748	29.13
363.957	29.13
364.165	29.21
364.374	29.3
364.583	29.25
364.792	29.25
365	29.24
365.209	29.3
365.418	29.32
365.626	29.35
365.835	29.42
366.044	29.4
366.253	29.46
366.461	29.42
366.67	29.39
366.878	29.46
367.087	29.44
367.296	29.47
367.504	29.42
367.713	29.44
367.921	29.47
368.13	29.44
368.338	29.45
368.547	29.45
368.755	29.49
368.964	29.5
369.172	29.54
369.381	29.61
369.589	29.62
369.798	29.69
370.006	29.69
370.215	29.69
370.423	29.71
370.632	29.72
370.84	29.72
371.048	29.73
371.257	29.76
371.465	29.77
371.673	29.79
371.882	29.8
372.09	29.8
372.298	29.83
372.507	29.9
372.715	29.91
372.923	29.92
373.131	29.89
373.34	29.92
373.548	29.92
373.756	29.91
373.964	29.92
374.172	29.92
374.381	29.92
374.589	29.94
374.797	29.92
375.005	29.93
375.213	29.92
375.421	29.89
375.629	29.88
375.837	29.96
376.045	29.92
376.254	29.9
376.462	29.92
376.67	29.91
376.878	29.86
377.086	29.86
377.294	29.87
377.502	29.89
377.71	29.99
377.918	30.01
378.126	29.98
378.333	30.03
378.541	30.08
378.749	30.07
378.957	30.07
379.165	30.12
379.373	30.12
379.581	30.1
379.789	30.2
379.996	30.25
380.204	30.29
380.412	30.32
380.62	30.35
380.828	30.34
381.035	30.36
381.243	30.43
381.451	30.43
381.659	30.46
381.866	30.54
382.074	30.52
382.282	30.48
382.489	30.48
382.697	30.52
382.905	30.51
383.112	30.51
383.32	30.52
383.528	30.52
383.735	30.5
383.943	30.5
384.15	30.49
384.358	30.47
384.565	30.51
384.773	30.52
384.981	30.45
385.188	30.47
385.396	30.5
385.603	30.5
385.811	30.44
386.018	30.4
386.225	30.41
386.433	30.39
386.64	30.39
386.848	30.39
387.055	30.37
387.263	30.37
387.47	30.34
387.677	30.3
387.885	30.31
388.092	30.38
388.299	30.48
388.507	30.51
388.714	30.53
388.921	30.57
389.128	30.56
389.336	30.54
389.543	30.63
389.75	30.64
389.957	30.7
390.165	30.73
390.372	30.76
390.579	30.76
390.786	30.79
390.993	30.79
391.2	30.79
391.408	30.85
391.615	30.9
391.822	30.88
392.029	30.91
392.236	30.91
392.443	30.93
392.65	30.94
392.857	30.94
393.064	30.98
393.271	30.99
393.478	31.02
393.685	30.99
393.892	31.02
394.099	30.98
394.306	30.99
394.513	30.95
394.72	30.93
394.927	30.93
395.134	30.93
395.341	30.91
395.547	30.96
395.754	30.95
395.961	30.97
396.168	30.94
396.375	31.01
396.582	31.03
396.788	31.08
396.995	31.11
397.202	31.09
397.409	31.11
397.616	31.14
397.822	31.12
398.029	31.13
398.236	31.22
398.442	31.2
398.649	31.18
398.856	31.23
399.062	31.23
399.269	31.25
399.476	31.33
399.682	31.34
399.889	31.35
400.096	31.38
400.302	31.4
400.509	31.36
400.715	31.43
400.922	31.47
401.128	31.45
401.335	31.48
401.541	31.53
401.748	31.52
401.954	31.53
402.161	31.57
402.367	31.59
402.574	31.59
402.78	31.61
402.986	31.62
403.193	31.61
403.399	31.65
403.606	31.68
403.812	31.67
404.018	31.69
404.225	31.73
404.431	31.72
404.637	31.7
404.844	31.73
405.05	31.79
405.256	31.82
405.462	31.86
405.669	31.85
405.875	31.85
406.081	31.89
406.287	31.91
406.494	31.92
406.7	31.92
406.906	31.96
407.112	31.98
407.318	31.97
407.524	31.97
407.73	31.97
407.937	32.02
408.143	32.04
408.349	32.06
408.555	32.08
408.761	32.13
408.967	32.19
409.173	32.22
409.379	32.27
409.585	32.3
409.791	32.33
409.997	32.34
410.203	32.37
410.409	32.37
410.615	32.36
410.821	32.35
411.027	32.35
411.233	32.37
411.438	32.39
411.644	32.39
411.85	32.39
412.056	32.39
412.262	32.45
412.468	32.5
412.673	32.55
412.879	32.6
413.085	32.68
413.291	32.71
413.497	32.73
413.702	32.76
413.908	32.78
414.114	32.84
414.319	32.89
414.525	32.9
414.731	32.91
414.937	32.94
415.142	32.95
415.348	32.94
415.553	32.95
415.759	33
415.965	33.01
416.17	33.02
416.376	33.01
416.581	33.03
416.787	33.03
416.992	33.01
417.198	33.01
417.404	33.03
417.609	33.03
417.815	33.04
418.02	33.03
418.225	33.03
418.431	33.07
418.636	33.09
418.842	33.11
419.047	33.11
419.253	33.16
419.458	33.18
419.663	33.19
419.869	33.21
420.074	33.23
420.279	33.25
420.485	33.29
420.69	33.29
420.895	33.31
421.101	33.34
421.306	33.38
421.511	33.36
421.716	33.37
421.922	33.38
422.127	33.41
422.332	33.42
422.537	33.46
422.742	33.46
422.947	33.47
423.153	33.47
423.358	33.48
423.563	33.48
423.768	33.52
423.973	33.53
424.178	33.56
424.383	33.54
424.588	33.55
424.793	33.58
424.998	33.6
425.203	33.62
425.408	33.64
425.613	33.66
425.818	33.69
426.023	33.73
426.228	33.77
426.433	33.79
426.638	33.84
426.843	33.9
427.048	33.88
427.253	33.92
427.458	33.98
427.663	34.02
427.867	34.05
428.072	34.09
428.277	34.1
428.482	34.14
428.687	34.18
428.892	34.22
429.096	34.23
429.301	34.29
429.506	34.31
429.711	34.34
429.915	34.39
430.12	34.4
430.325	34.41
430.529	34.43
430.734	34.44
430.939	34.46
431.143	34.47
431.348	34.46
431.553	34.47
431.757	34.46
431.962	34.48
432.166	34.47
432.371	34.49
432.575	34.5
432.78	34.51
432.984	34.5
433.189	34.51
433.394	34.54
433.598	34.53
433.802	34.55
434.007	34.58
434.211	34.57
434.416	34.59
434.62	34.59
434.825	34.62
435.029	34.67
435.233	34.71
435.438	34.72
435.642	34.74
435.846	34.82
436.051	34.82
436.255	34.86
436.459	34.9
436.664	34.91
436.868	34.95
437.072	34.94
437.276	34.95
437.481	34.97
437.685	35.01
437.889	34.99
438.093	34.99
438.298	35.02
438.502	35.01
438.706	34.99
438.91	35.04
439.114	35.02
439.318	35.04
439.522	35.03
439.726	35.02
439.931	35.04
440.135	35.07
440.339	35.09
440.543	35.08
440.747	35.09
440.951	35.1
441.155	35.09
441.359	35.1
441.563	35.11
441.767	35.12
441.971	35.17
442.175	35.17
442.378	35.19
442.582	35.2
442.786	35.25
442.99	35.28
443.194	35.31
443.398	35.34
443.602	35.37
443.806	35.41
444.009	35.46
444.213	35.44
444.417	35.44
444.621	35.49
444.825	35.53
445.028	35.5
445.232	35.51
445.436	35.51
445.639	35.52
445.843	35.56
446.047	35.57
446.251	35.56
446.454	35.59
446.658	35.61
446.861	35.6
447.065	35.6
447.269	35.63
447.472	35.68
447.676	35.71
447.879	35.74
448.083	35.76
448.287	35.76
448.49	35.78
448.694	35.78
448.897	35.8
449.101	35.84
449.304	35.87
449.507	35.91
449.711	35.9
449.914	35.93
450.118	35.94
450.321	35.96
450.525	36.01
450.728	36.06
450.931	36.11
451.135	36.1
451.338	36.09
451.541	36.12
451.745	36.13
451.948	36.15
452.151	36.17
452.355	36.18
452.558	36.17
452.761	36.2
452.964	36.22
453.168	36.24
453.371	36.29
453.574	36.34
453.777	36.36
453.98	36.39
454.183	36.42
454.387	36.42
454.59	36.45
454.793	36.48
454.996	36.5
455.199	36.53
455.402	36.57
455.605	36.59
455.808	36.58
456.011	36.58
456.214	36.58
456.417	36.61
